ENVI ASCII Plot File [Mon Jan 05 11:27:45 2015]
Column 1: Wavelength
Column 2: quickbird - band 1~~1
Column 3: quickbird - band 2~~2
Column 4: quickbird - band 3~~3
Column 5: quickbird - band 4~~4
  350.00000  0.00745  0.00480  0.00698  0.01329
  351.00000  0.00708  0.00508  0.00649  0.01298
  352.00000  0.00671  0.00536  0.00600  0.01268
  353.00000  0.00634  0.00563  0.00551  0.01237
  354.00000  0.00597  0.00591  0.00502  0.01206
  355.00000  0.00560  0.00618  0.00453  0.01175
  356.00000  0.00537  0.00561  0.00422  0.01092
  357.00000  0.00514  0.00503  0.00392  0.01008
  358.00000  0.00491  0.00446  0.00362  0.00924
  359.00000  0.00468  0.00389  0.00331  0.00841
  360.00000  0.00444  0.00331  0.00301  0.00757
  361.00000  0.00428  0.00334  0.00310  0.00695
  362.00000  0.00412  0.00337  0.00319  0.00633
  363.00000  0.00396  0.00340  0.00329  0.00571
  364.00000  0.00379  0.00343  0.00338  0.00510
  365.00000  0.00363  0.00346  0.00347  0.00448
  366.00000  0.00351  0.00321  0.00320  0.00460
  367.00000  0.00340  0.00295  0.00292  0.00473
  368.00000  0.00328  0.00269  0.00265  0.00485
  369.00000  0.00317  0.00244  0.00237  0.00498
  370.00000  0.00305  0.00218  0.00210  0.00510
  371.00000  0.00277  0.00216  0.00206  0.00478
  372.00000  0.00249  0.00214  0.00201  0.00447
  373.00000  0.00221  0.00212  0.00197  0.00415
  374.00000  0.00193  0.00210  0.00193  0.00383
  375.00000  0.00165  0.00207  0.00188  0.00351
  376.00000  0.00178  0.00190  0.00182  0.00374
  377.00000  0.00192  0.00172  0.00175  0.00396
  378.00000  0.00205  0.00154  0.00169  0.00418
  379.00000  0.00219  0.00136  0.00163  0.00441
  380.00000  0.00232  0.00119  0.00156  0.00463
  381.00000  0.00242  0.00127  0.00158  0.00446
  382.00000  0.00252  0.00136  0.00160  0.00429
  383.00000  0.00261  0.00144  0.00162  0.00411
  384.00000  0.00271  0.00153  0.00164  0.00394
  385.00000  0.00280  0.00161  0.00166  0.00376
  386.00000  0.00285  0.00164  0.00164  0.00366
  387.00000  0.00289  0.00166  0.00162  0.00355
  388.00000  0.00293  0.00169  0.00160  0.00344
  389.00000  0.00297  0.00171  0.00158  0.00333
  390.00000  0.00301  0.00174  0.00156  0.00322
  391.00000  0.00304  0.00171  0.00168  0.00334
  392.00000  0.00307  0.00168  0.00181  0.00346
  393.00000  0.00310  0.00165  0.00193  0.00358
  394.00000  0.00313  0.00162  0.00206  0.00370
  395.00000  0.00317  0.00159  0.00219  0.00382
  396.00000  0.00314  0.00161  0.00197  0.00377
  397.00000  0.00311  0.00163  0.00176  0.00371
  398.00000  0.00308  0.00165  0.00154  0.00366
  399.00000  0.00306  0.00167  0.00133  0.00360
  400.00000  0.00303  0.00169  0.00111  0.00355
  401.00000  0.00313  0.00166  0.00129  0.00342
  402.00000  0.00322  0.00163  0.00146  0.00328
  403.00000  0.00332  0.00160  0.00163  0.00315
  404.00000  0.00342  0.00157  0.00180  0.00302
  405.00000  0.00352  0.00154  0.00197  0.00289
  406.00000  0.00377  0.00154  0.00198  0.00288
  407.00000  0.00402  0.00155  0.00199  0.00287
  408.00000  0.00428  0.00156  0.00200  0.00286
  409.00000  0.00453  0.00157  0.00201  0.00284
  410.00000  0.00478  0.00158  0.00202  0.00283
  411.00000  0.00538  0.00163  0.00203  0.00299
  412.00000  0.00597  0.00168  0.00205  0.00315
  413.00000  0.00656  0.00173  0.00206  0.00331
  414.00000  0.00715  0.00178  0.00208  0.00347
  415.00000  0.00775  0.00183  0.00209  0.00363
  416.00000  0.00926  0.00195  0.00204  0.00354
  417.00000  0.01078  0.00208  0.00198  0.00345
  418.00000  0.01229  0.00221  0.00192  0.00335
  419.00000  0.01381  0.00233  0.00186  0.00326
  420.00000  0.01533  0.00246  0.00180  0.00317
  421.00000  0.01880  0.00257  0.00175  0.00343
  422.00000  0.02228  0.00267  0.00170  0.00369
  423.00000  0.02576  0.00278  0.00165  0.00394
  424.00000  0.02924  0.00289  0.00159  0.00420
  425.00000  0.03272  0.00299  0.00154  0.00446
  426.00000  0.04170  0.00311  0.00170  0.00448
  427.00000  0.05069  0.00322  0.00185  0.00451
  428.00000  0.05967  0.00334  0.00201  0.00453
  429.00000  0.06866  0.00345  0.00217  0.00455
  430.00000  0.07764  0.00357  0.00232  0.00457
  431.00000  0.09707  0.00378  0.00249  0.00477
  432.00000  0.11649  0.00400  0.00266  0.00497
  433.00000  0.13592  0.00421  0.00282  0.00517
  434.00000  0.15535  0.00443  0.00299  0.00537
  435.00000  0.17477  0.00464  0.00316  0.00557
  436.00000  0.20165  0.00509  0.00336  0.00588
  437.00000  0.22852  0.00553  0.00357  0.00620
  438.00000  0.25540  0.00598  0.00378  0.00651
  439.00000  0.28227  0.00642  0.00398  0.00682
  440.00000  0.30914  0.00687  0.00419  0.00713
  441.00000  0.34229  0.00790  0.00427  0.00736
  442.00000  0.37544  0.00893  0.00434  0.00758
  443.00000  0.40859  0.00996  0.00442  0.00780
  444.00000  0.44174  0.01099  0.00450  0.00802
  445.00000  0.47489  0.01203  0.00457  0.00824
  446.00000  0.51710  0.01394  0.00450  0.00823
  447.00000  0.55931  0.01586  0.00443  0.00822
  448.00000  0.60152  0.01778  0.00436  0.00820
  449.00000  0.64373  0.01970  0.00429  0.00819
  450.00000  0.68595  0.02161  0.00422  0.00818
  451.00000  0.70471  0.02290  0.00419  0.00821
  452.00000  0.72347  0.02419  0.00416  0.00825
  453.00000  0.74223  0.02548  0.00414  0.00828
  454.00000  0.76099  0.02677  0.00411  0.00831
  455.00000  0.77975  0.02806  0.00408  0.00835
  456.00000  0.79239  0.02958  0.00412  0.00809
  457.00000  0.80504  0.03110  0.00415  0.00783
  458.00000  0.81768  0.03262  0.00419  0.00757
  459.00000  0.83033  0.03414  0.00423  0.00731
  460.00000  0.84297  0.03566  0.00426  0.00705
  461.00000  0.85223  0.03818  0.00439  0.00712
  462.00000  0.86148  0.04069  0.00452  0.00719
  463.00000  0.87073  0.04321  0.00464  0.00726
  464.00000  0.87999  0.04573  0.00477  0.00733
  465.00000  0.88924  0.04824  0.00489  0.00741
  466.00000  0.89688  0.05243  0.00495  0.00750
  467.00000  0.90452  0.05662  0.00500  0.00760
  468.00000  0.91215  0.06081  0.00505  0.00769
  469.00000  0.91979  0.06500  0.00511  0.00779
  470.00000  0.92743  0.06919  0.00516  0.00788
  471.00000  0.93129  0.07788  0.00500  0.00801
  472.00000  0.93516  0.08657  0.00485  0.00814
  473.00000  0.93903  0.09525  0.00469  0.00828
  474.00000  0.94289  0.10394  0.00453  0.00841
  475.00000  0.94676  0.11263  0.00437  0.00854
  476.00000  0.94714  0.12567  0.00407  0.00863
  477.00000  0.94752  0.13871  0.00376  0.00871
  478.00000  0.94790  0.15176  0.00346  0.00880
  479.00000  0.94828  0.16480  0.00315  0.00889
  480.00000  0.94866  0.17784  0.00285  0.00897
  481.00000  0.95294  0.19356  0.00287  0.00885
  482.00000  0.95722  0.20927  0.00289  0.00874
  483.00000  0.96150  0.22499  0.00291  0.00862
  484.00000  0.96577  0.24071  0.00293  0.00850
  485.00000  0.97005  0.25642  0.00295  0.00839
  486.00000  0.97604  0.27624  0.00300  0.00803
  487.00000  0.98203  0.29606  0.00305  0.00768
  488.00000  0.98802  0.31588  0.00310  0.00733
  489.00000  0.99401  0.33570  0.00315  0.00698
  490.00000  1.00000  0.35552  0.00320  0.00663
  491.00000  0.99632  0.37635  0.00327  0.00624
  492.00000  0.99265  0.39717  0.00335  0.00585
  493.00000  0.98897  0.41800  0.00342  0.00546
  494.00000  0.98530  0.43882  0.00349  0.00507
  495.00000  0.98162  0.45964  0.00357  0.00468
  496.00000  0.96520  0.48275  0.00366  0.00457
  497.00000  0.94879  0.50585  0.00376  0.00445
  498.00000  0.93237  0.52896  0.00385  0.00433
  499.00000  0.91596  0.55206  0.00395  0.00422
  500.00000  0.89954  0.57516  0.00404  0.00410
  501.00000  0.86953  0.60213  0.00409  0.00407
  502.00000  0.83952  0.62909  0.00414  0.00404
  503.00000  0.80951  0.65606  0.00419  0.00401
  504.00000  0.77950  0.68302  0.00424  0.00398
  505.00000  0.74948  0.70999  0.00429  0.00396
  506.00000  0.70978  0.73251  0.00433  0.00394
  507.00000  0.67007  0.75504  0.00438  0.00392
  508.00000  0.63036  0.77757  0.00443  0.00390
  509.00000  0.59065  0.80009  0.00447  0.00388
  510.00000  0.55094  0.82262  0.00452  0.00386
  511.00000  0.51383  0.83402  0.00457  0.00395
  512.00000  0.47672  0.84542  0.00461  0.00404
  513.00000  0.43961  0.85682  0.00466  0.00413
  514.00000  0.40250  0.86822  0.00471  0.00422
  515.00000  0.36539  0.87962  0.00476  0.00431
  516.00000  0.34232  0.88071  0.00497  0.00422
  517.00000  0.31925  0.88181  0.00517  0.00412
  518.00000  0.29618  0.88290  0.00537  0.00403
  519.00000  0.27311  0.88399  0.00558  0.00394
  520.00000  0.25004  0.88509  0.00578  0.00385
  521.00000  0.22974  0.88880  0.00596  0.00407
  522.00000  0.20944  0.89251  0.00613  0.00429
  523.00000  0.18915  0.89622  0.00630  0.00452
  524.00000  0.16885  0.89992  0.00648  0.00474
  525.00000  0.14855  0.90363  0.00665  0.00497
  526.00000  0.13393  0.90968  0.00680  0.00552
  527.00000  0.11932  0.91573  0.00695  0.00607
  528.00000  0.10470  0.92178  0.00709  0.00662
  529.00000  0.09009  0.92783  0.00724  0.00717
  530.00000  0.07547  0.93388  0.00738  0.00772
  531.00000  0.07306  0.93984  0.00746  0.00846
  532.00000  0.07065  0.94580  0.00754  0.00919
  533.00000  0.06824  0.95176  0.00762  0.00993
  534.00000  0.06582  0.95771  0.00770  0.01067
  535.00000  0.06341  0.96367  0.00777  0.01140
  536.00000  0.06222  0.96914  0.00783  0.01195
  537.00000  0.06102  0.97462  0.00788  0.01251
  538.00000  0.05983  0.98009  0.00793  0.01306
  539.00000  0.05863  0.98556  0.00798  0.01361
  540.00000  0.05744  0.99103  0.00803  0.01417
  541.00000  0.05439  0.99283  0.00809  0.01424
  542.00000  0.05134  0.99462  0.00816  0.01432
  543.00000  0.04829  0.99641  0.00822  0.01440
  544.00000  0.04524  0.99821  0.00828  0.01447
  545.00000  0.04220  1.00000  0.00835  0.01455
  546.00000  0.03899  0.99687  0.00854  0.01386
  547.00000  0.03578  0.99374  0.00873  0.01316
  548.00000  0.03257  0.99061  0.00891  0.01247
  549.00000  0.02936  0.98748  0.00910  0.01177
  550.00000  0.02614  0.98434  0.00929  0.01108
  551.00000  0.02403  0.98030  0.00956  0.01022
  552.00000  0.02192  0.97626  0.00983  0.00937
  553.00000  0.01980  0.97221  0.01011  0.00851
  554.00000  0.01769  0.96817  0.01038  0.00766
  555.00000  0.01557  0.96413  0.01065  0.00680
  556.00000  0.01469  0.95993  0.01092  0.00678
  557.00000  0.01380  0.95574  0.01119  0.00676
  558.00000  0.01291  0.95154  0.01147  0.00674
  559.00000  0.01202  0.94735  0.01174  0.00672
  560.00000  0.01114  0.94315  0.01201  0.00670
  561.00000  0.01107  0.94309  0.01236  0.00710
  562.00000  0.01100  0.94303  0.01270  0.00750
  563.00000  0.01094  0.94297  0.01304  0.00790
  564.00000  0.01087  0.94291  0.01338  0.00830
  565.00000  0.01080  0.94285  0.01372  0.00870
  566.00000  0.01086  0.94300  0.01418  0.00904
  567.00000  0.01091  0.94315  0.01464  0.00938
  568.00000  0.01097  0.94330  0.01509  0.00972
  569.00000  0.01103  0.94346  0.01555  0.01006
  570.00000  0.01108  0.94361  0.01600  0.01040
  571.00000  0.01102  0.93786  0.01685  0.01046
  572.00000  0.01095  0.93212  0.01769  0.01051
  573.00000  0.01089  0.92637  0.01854  0.01057
  574.00000  0.01082  0.92063  0.01938  0.01063
  575.00000  0.01076  0.91488  0.02022  0.01068
  576.00000  0.01048  0.90065  0.02157  0.01027
  577.00000  0.01021  0.88643  0.02292  0.00987
  578.00000  0.00994  0.87220  0.02426  0.00946
  579.00000  0.00966  0.85797  0.02561  0.00905
  580.00000  0.00939  0.84374  0.02696  0.00864
  581.00000  0.00920  0.82237  0.02908  0.00807
  582.00000  0.00902  0.80100  0.03120  0.00750
  583.00000  0.00883  0.77963  0.03333  0.00693
  584.00000  0.00864  0.75826  0.03545  0.00636
  585.00000  0.00845  0.73689  0.03757  0.00579
  586.00000  0.00835  0.71053  0.04041  0.00563
  587.00000  0.00825  0.68418  0.04325  0.00547
  588.00000  0.00815  0.65782  0.04609  0.00531
  589.00000  0.00804  0.63146  0.04893  0.00515
  590.00000  0.00794  0.60511  0.05177  0.00499
  591.00000  0.00788  0.57243  0.05536  0.00496
  592.00000  0.00782  0.53975  0.05895  0.00494
  593.00000  0.00776  0.50707  0.06254  0.00492
  594.00000  0.00770  0.47439  0.06613  0.00489
  595.00000  0.00765  0.44171  0.06972  0.00487
  596.00000  0.00771  0.41012  0.07489  0.00483
  597.00000  0.00778  0.37854  0.08006  0.00478
  598.00000  0.00784  0.34695  0.08524  0.00474
  599.00000  0.00791  0.31537  0.09041  0.00469
  600.00000  0.00798  0.28378  0.09558  0.00465
  601.00000  0.00810  0.26366  0.10432  0.00465
  602.00000  0.00823  0.24353  0.11306  0.00465
  603.00000  0.00836  0.22341  0.12180  0.00465
  604.00000  0.00849  0.20328  0.13055  0.00465
  605.00000  0.00862  0.18316  0.13929  0.00465
  606.00000  0.00856  0.17115  0.15564  0.00472
  607.00000  0.00851  0.15914  0.17200  0.00479
  608.00000  0.00845  0.14714  0.18836  0.00485
  609.00000  0.00840  0.13513  0.20471  0.00492
  610.00000  0.00834  0.12312  0.22107  0.00498
  611.00000  0.00793  0.11446  0.24746  0.00512
  612.00000  0.00752  0.10580  0.27384  0.00526
  613.00000  0.00711  0.09715  0.30023  0.00540
  614.00000  0.00670  0.08849  0.32662  0.00554
  615.00000  0.00629  0.07983  0.35300  0.00568
  616.00000  0.00588  0.07366  0.38764  0.00576
  617.00000  0.00547  0.06749  0.42228  0.00584
  618.00000  0.00506  0.06132  0.45691  0.00592
  619.00000  0.00465  0.05515  0.49155  0.00601
  620.00000  0.00424  0.04897  0.52619  0.00609
  621.00000  0.00395  0.04554  0.56030  0.00628
  622.00000  0.00366  0.04211  0.59441  0.00647
  623.00000  0.00337  0.03868  0.62852  0.00665
  624.00000  0.00308  0.03525  0.66263  0.00684
  625.00000  0.00279  0.03181  0.69674  0.00703
  626.00000  0.00264  0.03027  0.72557  0.00712
  627.00000  0.00249  0.02872  0.75440  0.00721
  628.00000  0.00234  0.02717  0.78322  0.00730
  629.00000  0.00220  0.02562  0.81205  0.00739
  630.00000  0.00205  0.02408  0.84088  0.00749
  631.00000  0.00202  0.02375  0.85583  0.00765
  632.00000  0.00200  0.02343  0.87079  0.00781
  633.00000  0.00198  0.02310  0.88574  0.00797
  634.00000  0.00195  0.02278  0.90070  0.00813
  635.00000  0.00193  0.02245  0.91565  0.00829
  636.00000  0.00193  0.02262  0.91982  0.00840
  637.00000  0.00192  0.02280  0.92399  0.00851
  638.00000  0.00191  0.02297  0.92816  0.00862
  639.00000  0.00191  0.02314  0.93233  0.00872
  640.00000  0.00190  0.02332  0.93651  0.00883
  641.00000  0.00191  0.02330  0.94129  0.00912
  642.00000  0.00192  0.02329  0.94608  0.00941
  643.00000  0.00192  0.02328  0.95087  0.00970
  644.00000  0.00193  0.02327  0.95566  0.01000
  645.00000  0.00193  0.02326  0.96045  0.01029
  646.00000  0.00197  0.02266  0.96666  0.01062
  647.00000  0.00200  0.02206  0.97287  0.01095
  648.00000  0.00203  0.02147  0.97908  0.01129
  649.00000  0.00207  0.02087  0.98529  0.01162
  650.00000  0.00210  0.02028  0.99150  0.01195
  651.00000  0.00208  0.01931  0.99320  0.01222
  652.00000  0.00206  0.01835  0.99490  0.01249
  653.00000  0.00203  0.01739  0.99660  0.01275
  654.00000  0.00201  0.01642  0.99830  0.01302
  655.00000  0.00199  0.01546  1.00000  0.01329
  656.00000  0.00200  0.01481  0.99932  0.01351
  657.00000  0.00201  0.01415  0.99864  0.01373
  658.00000  0.00202  0.01350  0.99796  0.01395
  659.00000  0.00203  0.01285  0.99728  0.01417
  660.00000  0.00204  0.01220  0.99660  0.01438
  661.00000  0.00211  0.01192  0.99357  0.01452
  662.00000  0.00219  0.01164  0.99055  0.01466
  663.00000  0.00227  0.01137  0.98752  0.01480
  664.00000  0.00235  0.01109  0.98449  0.01494
  665.00000  0.00242  0.01081  0.98146  0.01508
  666.00000  0.00259  0.01080  0.97216  0.01519
  667.00000  0.00275  0.01079  0.96286  0.01530
  668.00000  0.00292  0.01079  0.95356  0.01542
  669.00000  0.00309  0.01078  0.94426  0.01553
  670.00000  0.00325  0.01077  0.93496  0.01564
  671.00000  0.00389  0.01074  0.91803  0.01582
  672.00000  0.00452  0.01072  0.90110  0.01600
  673.00000  0.00516  0.01069  0.88417  0.01617
  674.00000  0.00579  0.01066  0.86723  0.01635
  675.00000  0.00643  0.01064  0.85030  0.01653
  676.00000  0.00747  0.01038  0.82592  0.01677
  677.00000  0.00852  0.01011  0.80155  0.01702
  678.00000  0.00957  0.00985  0.77717  0.01727
  679.00000  0.01061  0.00959  0.75279  0.01751
  680.00000  0.01166  0.00933  0.72841  0.01776
  681.00000  0.01278  0.00892  0.69804  0.01811
  682.00000  0.01391  0.00851  0.66767  0.01846
  683.00000  0.01504  0.00810  0.63729  0.01881
  684.00000  0.01616  0.00769  0.60692  0.01916
  685.00000  0.01729  0.00728  0.57655  0.01951
  686.00000  0.01768  0.00678  0.54197  0.02001
  687.00000  0.01807  0.00628  0.50740  0.02051
  688.00000  0.01846  0.00578  0.47283  0.02101
  689.00000  0.01885  0.00528  0.43825  0.02151
  690.00000  0.01924  0.00478  0.40368  0.02201
  691.00000  0.01808  0.00451  0.37605  0.02298
  692.00000  0.01692  0.00423  0.34843  0.02394
  693.00000  0.01576  0.00396  0.32081  0.02491
  694.00000  0.01460  0.00368  0.29319  0.02587
  695.00000  0.01344  0.00341  0.26556  0.02684
  696.00000  0.01192  0.00322  0.24347  0.02799
  697.00000  0.01039  0.00304  0.22138  0.02914
  698.00000  0.00887  0.00286  0.19929  0.03029
  699.00000  0.00734  0.00268  0.17720  0.03144
  700.00000  0.00581  0.00250  0.15511  0.03259
  701.00000  0.00543  0.00244  0.14194  0.03362
  702.00000  0.00505  0.00238  0.12878  0.03465
  703.00000  0.00466  0.00232  0.11562  0.03569
  704.00000  0.00428  0.00226  0.10246  0.03672
  705.00000  0.00390  0.00221  0.08929  0.03775
  706.00000  0.00409  0.00221  0.08128  0.03908
  707.00000  0.00427  0.00221  0.07327  0.04042
  708.00000  0.00446  0.00221  0.06526  0.04175
  709.00000  0.00464  0.00220  0.05725  0.04308
  710.00000  0.00483  0.00220  0.04924  0.04441
  711.00000  0.00526  0.00238  0.04495  0.04614
  712.00000  0.00569  0.00256  0.04067  0.04788
  713.00000  0.00611  0.00273  0.03639  0.04962
  714.00000  0.00654  0.00291  0.03211  0.05135
  715.00000  0.00697  0.00309  0.02782  0.05309
  716.00000  0.00722  0.00340  0.02627  0.05537
  717.00000  0.00747  0.00372  0.02471  0.05765
  718.00000  0.00773  0.00404  0.02316  0.05994
  719.00000  0.00798  0.00436  0.02161  0.06222
  720.00000  0.00823  0.00467  0.02005  0.06450
  721.00000  0.00782  0.00489  0.01968  0.06719
  722.00000  0.00741  0.00510  0.01932  0.06987
  723.00000  0.00700  0.00531  0.01895  0.07255
  724.00000  0.00659  0.00552  0.01858  0.07524
  725.00000  0.00618  0.00573  0.01821  0.07792
  726.00000  0.00543  0.00573  0.01831  0.08156
  727.00000  0.00469  0.00572  0.01840  0.08519
  728.00000  0.00395  0.00571  0.01849  0.08883
  729.00000  0.00320  0.00571  0.01858  0.09246
  730.00000  0.00246  0.00570  0.01868  0.09610
  731.00000  0.00233  0.00541  0.01879  0.10207
  732.00000  0.00219  0.00511  0.01889  0.10805
  733.00000  0.00206  0.00481  0.01900  0.11403
  734.00000  0.00193  0.00452  0.01911  0.12000
  735.00000  0.00180  0.00422  0.01922  0.12598
  736.00000  0.00183  0.00393  0.01886  0.13482
  737.00000  0.00185  0.00363  0.01851  0.14365
  738.00000  0.00188  0.00333  0.01815  0.15249
  739.00000  0.00191  0.00304  0.01780  0.16133
  740.00000  0.00194  0.00274  0.01744  0.17016
  741.00000  0.00190  0.00258  0.01656  0.18656
  742.00000  0.00186  0.00242  0.01568  0.20295
  743.00000  0.00183  0.00226  0.01479  0.21935
  744.00000  0.00179  0.00210  0.01391  0.23575
  745.00000  0.00175  0.00193  0.01303  0.25214
  746.00000  0.00180  0.00186  0.01209  0.27623
  747.00000  0.00185  0.00179  0.01116  0.30032
  748.00000  0.00190  0.00172  0.01022  0.32440
  749.00000  0.00195  0.00165  0.00929  0.34849
  750.00000  0.00200  0.00157  0.00835  0.37258
  751.00000  0.00202  0.00164  0.00784  0.39928
  752.00000  0.00204  0.00170  0.00732  0.42598
  753.00000  0.00206  0.00176  0.00681  0.45268
  754.00000  0.00209  0.00182  0.00629  0.47939
  755.00000  0.00211  0.00189  0.00578  0.50609
  756.00000  0.00215  0.00194  0.00549  0.53437
  757.00000  0.00219  0.00200  0.00521  0.56265
  758.00000  0.00223  0.00206  0.00492  0.59093
  759.00000  0.00227  0.00212  0.00463  0.61922
  760.00000  0.00231  0.00218  0.00435  0.64750
  761.00000  0.00226  0.00215  0.00426  0.67975
  762.00000  0.00222  0.00211  0.00416  0.71200
  763.00000  0.00218  0.00208  0.00407  0.74425
  764.00000  0.00214  0.00205  0.00397  0.77650
  765.00000  0.00210  0.00201  0.00388  0.80875
  766.00000  0.00214  0.00205  0.00382  0.83762
  767.00000  0.00218  0.00208  0.00375  0.86649
  768.00000  0.00222  0.00212  0.00369  0.89535
  769.00000  0.00226  0.00215  0.00362  0.92422
  770.00000  0.00230  0.00219  0.00356  0.95309
  771.00000  0.00230  0.00222  0.00361  0.96247
  772.00000  0.00230  0.00226  0.00367  0.97185
  773.00000  0.00230  0.00230  0.00373  0.98124
  774.00000  0.00230  0.00233  0.00378  0.99062
  775.00000  0.00230  0.00237  0.00384  1.00000
  776.00000  0.00223  0.00245  0.00393  0.99815
  777.00000  0.00216  0.00253  0.00401  0.99630
  778.00000  0.00209  0.00261  0.00410  0.99445
  779.00000  0.00201  0.00268  0.00418  0.99260
  780.00000  0.00194  0.00276  0.00427  0.99075
  781.00000  0.00197  0.00274  0.00442  0.98417
  782.00000  0.00201  0.00272  0.00458  0.97758
  783.00000  0.00204  0.00270  0.00473  0.97100
  784.00000  0.00207  0.00268  0.00489  0.96441
  785.00000  0.00211  0.00265  0.00504  0.95783
  786.00000  0.00208  0.00273  0.00514  0.94971
  787.00000  0.00205  0.00280  0.00525  0.94159
  788.00000  0.00202  0.00288  0.00535  0.93347
  789.00000  0.00199  0.00295  0.00545  0.92535
  790.00000  0.00196  0.00303  0.00555  0.91723
  791.00000  0.00195  0.00299  0.00547  0.90943
  792.00000  0.00195  0.00295  0.00538  0.90162
  793.00000  0.00194  0.00291  0.00530  0.89382
  794.00000  0.00194  0.00287  0.00521  0.88602
  795.00000  0.00193  0.00284  0.00513  0.87821
  796.00000  0.00191  0.00279  0.00484  0.87109
  797.00000  0.00189  0.00274  0.00454  0.86396
  798.00000  0.00187  0.00269  0.00425  0.85683
  799.00000  0.00185  0.00264  0.00396  0.84971
  800.00000  0.00183  0.00259  0.00366  0.84258
  801.00000  0.00186  0.00255  0.00343  0.83802
  802.00000  0.00190  0.00250  0.00320  0.83347
  803.00000  0.00193  0.00245  0.00297  0.82891
  804.00000  0.00197  0.00241  0.00273  0.82436
  805.00000  0.00200  0.00236  0.00250  0.81980
  806.00000  0.00201  0.00232  0.00244  0.81624
  807.00000  0.00201  0.00228  0.00238  0.81267
  808.00000  0.00201  0.00224  0.00232  0.80911
  809.00000  0.00201  0.00221  0.00226  0.80555
  810.00000  0.00202  0.00217  0.00220  0.80198
  811.00000  0.00204  0.00214  0.00215  0.79986
  812.00000  0.00207  0.00211  0.00210  0.79774
  813.00000  0.00209  0.00209  0.00206  0.79562
  814.00000  0.00212  0.00206  0.00201  0.79350
  815.00000  0.00214  0.00204  0.00197  0.79138
  816.00000  0.00216  0.00203  0.00197  0.78917
  817.00000  0.00218  0.00202  0.00197  0.78696
  818.00000  0.00219  0.00202  0.00198  0.78475
  819.00000  0.00221  0.00201  0.00198  0.78254
  820.00000  0.00223  0.00201  0.00198  0.78033
  821.00000  0.00226  0.00202  0.00198  0.77839
  822.00000  0.00228  0.00203  0.00198  0.77645
  823.00000  0.00231  0.00204  0.00198  0.77452
  824.00000  0.00234  0.00205  0.00198  0.77258
  825.00000  0.00237  0.00206  0.00198  0.77064
  826.00000  0.00238  0.00207  0.00196  0.76721
  827.00000  0.00239  0.00208  0.00194  0.76378
  828.00000  0.00241  0.00209  0.00192  0.76035
  829.00000  0.00242  0.00210  0.00190  0.75692
  830.00000  0.00243  0.00211  0.00188  0.75350
  831.00000  0.00245  0.00212  0.00191  0.74840
  832.00000  0.00246  0.00213  0.00195  0.74330
  833.00000  0.00248  0.00214  0.00199  0.73820
  834.00000  0.00249  0.00215  0.00202  0.73311
  835.00000  0.00251  0.00216  0.00206  0.72801
  836.00000  0.00250  0.00220  0.00203  0.72070
  837.00000  0.00248  0.00225  0.00200  0.71340
  838.00000  0.00247  0.00230  0.00197  0.70609
  839.00000  0.00245  0.00235  0.00194  0.69878
  840.00000  0.00244  0.00240  0.00191  0.69147
  841.00000  0.00252  0.00249  0.00194  0.68232
  842.00000  0.00261  0.00258  0.00196  0.67316
  843.00000  0.00270  0.00267  0.00199  0.66401
  844.00000  0.00279  0.00276  0.00201  0.65485
  845.00000  0.00287  0.00286  0.00203  0.64569
  846.00000  0.00285  0.00294  0.00201  0.64023
  847.00000  0.00283  0.00302  0.00199  0.63478
  848.00000  0.00280  0.00310  0.00198  0.62932
  849.00000  0.00278  0.00318  0.00196  0.62386
  850.00000  0.00276  0.00326  0.00194  0.61840
  851.00000  0.00288  0.00349  0.00195  0.61245
  852.00000  0.00300  0.00371  0.00196  0.60650
  853.00000  0.00312  0.00394  0.00197  0.60054
  854.00000  0.00323  0.00417  0.00199  0.59459
  855.00000  0.00335  0.00440  0.00200  0.58863
  856.00000  0.00334  0.00451  0.00198  0.58142
  857.00000  0.00332  0.00461  0.00196  0.57420
  858.00000  0.00330  0.00472  0.00195  0.56698
  859.00000  0.00328  0.00483  0.00193  0.55977
  860.00000  0.00326  0.00494  0.00192  0.55255
  861.00000  0.00325  0.00510  0.00189  0.54362
  862.00000  0.00323  0.00525  0.00186  0.53469
  863.00000  0.00321  0.00541  0.00184  0.52576
  864.00000  0.00320  0.00556  0.00181  0.51682
  865.00000  0.00318  0.00572  0.00178  0.50789
  866.00000  0.00314  0.00573  0.00179  0.50104
  867.00000  0.00310  0.00574  0.00179  0.49418
  868.00000  0.00306  0.00575  0.00179  0.48733
  869.00000  0.00303  0.00575  0.00179  0.48047
  870.00000  0.00299  0.00576  0.00180  0.47361
  871.00000  0.00297  0.00574  0.00177  0.46599
  872.00000  0.00296  0.00571  0.00174  0.45837
  873.00000  0.00294  0.00569  0.00172  0.45074
  874.00000  0.00293  0.00566  0.00169  0.44312
  875.00000  0.00291  0.00563  0.00166  0.43550
  876.00000  0.00291  0.00557  0.00165  0.42539
  877.00000  0.00290  0.00552  0.00163  0.41529
  878.00000  0.00289  0.00546  0.00162  0.40519
  879.00000  0.00288  0.00540  0.00160  0.39508
  880.00000  0.00288  0.00534  0.00159  0.38498
  881.00000  0.00287  0.00525  0.00156  0.36955
  882.00000  0.00287  0.00517  0.00154  0.35413
  883.00000  0.00286  0.00508  0.00152  0.33870
  884.00000  0.00286  0.00500  0.00150  0.32327
  885.00000  0.00285  0.00491  0.00148  0.30785
  886.00000  0.00286  0.00486  0.00146  0.29423
  887.00000  0.00288  0.00481  0.00144  0.28060
  888.00000  0.00289  0.00476  0.00142  0.26698
  889.00000  0.00290  0.00471  0.00140  0.25336
  890.00000  0.00291  0.00465  0.00138  0.23974
  891.00000  0.00295  0.00464  0.00140  0.23017
  892.00000  0.00299  0.00462  0.00142  0.22060
  893.00000  0.00304  0.00460  0.00144  0.21102
  894.00000  0.00308  0.00458  0.00146  0.20145
  895.00000  0.00312  0.00456  0.00148  0.19188
  896.00000  0.00324  0.00457  0.00149  0.18114
  897.00000  0.00335  0.00458  0.00151  0.17039
  898.00000  0.00347  0.00459  0.00153  0.15965
  899.00000  0.00359  0.00459  0.00154  0.14890
  900.00000  0.00370  0.00460  0.00156  0.13816
